
      	X(nS)     	Ch1(mV)      


 1    	0.0000    	-137.621582 
 2    	0.0587    	-138.124695 
 3    	0.1173    	-137.837158 
 4    	0.1760    	-137.765320 
 5    	0.2346    	-137.909058 
 6    	0.2933    	-137.190308 
 7    	0.3519    	-137.118408 
 8    	0.4106    	-137.190308 
 9    	0.4692    	-137.909058 
 10   	0.5279    	-138.124695 
 11   	0.5865    	-137.980957 
 12   	0.6452    	-137.693420 
 13   	0.7038    	-137.693420 
 14   	0.7625    	-137.909058 
 15   	0.8211    	-138.340332 
 16   	0.8798    	-138.268433 
 17   	0.9384    	-138.484070 
 18   	0.9971    	-139.130920 
 19   	1.0557    	-138.843430 
 20   	1.1144    	-138.412170 
 21   	1.1730    	-138.771545 
 22   	1.2317    	-138.196533 
 23   	1.2903    	-138.340332 
 24   	1.3490    	-137.837158 
 25   	1.4076    	-138.340332 
 26   	1.4663    	-138.555908 
 27   	1.5249    	-138.555908 
 28   	1.5836    	-139.346558 
 29   	1.6422    	-139.202820 
 30   	1.7009    	-138.843430 
 31   	1.7595    	-138.987183 
 32   	1.8182    	-138.484070 
 33   	1.8768    	-138.843430 
 34   	1.9355    	-138.843430 
 35   	1.9941    	-138.771545 
 36   	2.0528    	-139.490295 
 37   	2.1114    	-138.771545 
 38   	2.1701    	-139.059082 
 39   	2.2287    	-139.130920 
 40   	2.2874    	-139.274658 
 41   	2.3460    	-138.987183 
 42   	2.4047    	-138.484070 
 43   	2.4633    	-138.699707 
 44   	2.5220    	-138.771545 
 45   	2.5806    	-139.274658 
 46   	2.6393    	-138.699707 
 47   	2.6979    	-139.130920 
 48   	2.7566    	-138.196533 
 49   	2.8152    	-138.268433 
 50   	2.8739    	-138.843430 
 51   	2.9326    	-139.059082 
 52   	2.9912    	-138.484070 
 53   	3.0499    	-138.412170 
 54   	3.1085    	-138.340332 
 55   	3.1672    	-138.555908 
 56   	3.2258    	-139.202820 
 57   	3.2845    	-137.765320 
 58   	3.3431    	-139.634033 
 59   	3.4018    	-138.843430 
 60   	3.4604    	-138.484070 
 61   	3.5191    	-138.412170 
 62   	3.5777    	-138.987183 
 63   	3.6364    	-138.843430 
 64   	3.6950    	-138.771545 
 65   	3.7537    	-138.196533 
 66   	3.8123    	-138.484070 
 67   	3.8710    	-139.346558 
 68   	3.9296    	-139.346558 
 69   	3.9883    	-138.627808 
 70   	4.0469    	-137.693420 
 71   	4.1056    	-138.340332 
 72   	4.1642    	-137.837158 
 73   	4.2229    	-138.052795 
 74   	4.2815    	-138.340332 
 75   	4.3402    	-138.412170 
 76   	4.3988    	-138.412170 
 77   	4.4575    	-138.340332 
 78   	4.5161    	-138.915283 
 79   	4.5748    	-138.484070 
 80   	4.6334    	-138.771545 
 81   	4.6921    	-138.340332 
 82   	4.7507    	-138.340332 
 83   	4.8094    	-138.412170 
 84   	4.8680    	-138.052795 
 85   	4.9267    	-137.909058 
 86   	4.9853    	-137.909058 
 87   	5.0440    	-138.699707 
 88   	5.1026    	-137.765320 
 89   	5.1613    	-137.909058 
 90   	5.2199    	-137.837158 
 91   	5.2786    	-138.052795 
 92   	5.3372    	-137.909058 
 93   	5.3959    	-137.621582 
 94   	5.4545    	-137.693420 
 95   	5.5132    	-137.549683 
 96   	5.5718    	-138.196533 
 97   	5.6305    	-137.693420 
 98   	5.6891    	-136.184082 
 99   	5.7478    	-137.549683 
 100  	5.8065    	-137.765320 
 101  	5.8651    	-137.477783 
 102  	5.9238    	-136.830933 
 103  	5.9824    	-137.118408 
 104  	6.0411    	-136.255920 
 105  	6.0997    	-136.830933 
 106  	6.1584    	-137.334045 
 107  	6.2170    	-137.405945 
 108  	6.2757    	-136.615295 
 109  	6.3343    	-137.405945 
 110  	6.3930    	-138.124695 
 111  	6.4516    	-138.268433 
 112  	6.5103    	-138.124695 
 113  	6.5689    	-138.268433 
 114  	6.6276    	-138.699707 
 115  	6.6862    	-138.843430 
 116  	6.7449    	-138.699707 
 117  	6.8035    	-138.915283 
 118  	6.8622    	-138.196533 
 119  	6.9208    	-137.909058 
 120  	6.9795    	-137.262207 
 121  	7.0381    	-136.687195 
 122  	7.0968    	-137.334045 
 123  	7.1554    	-137.405945 
 124  	7.2141    	-137.405945 
 125  	7.2727    	-137.334045 
 126  	7.3314    	-137.262207 
 127  	7.3900    	-137.405945 
 128  	7.4487    	-137.980957 
 129  	7.5073    	-137.549683 
 130  	7.5660    	-137.909058 
 131  	7.6246    	-138.196533 
 132  	7.6833    	-138.340332 
 133  	7.7419    	-138.699707 
 134  	7.8006    	-138.843430 
 135  	7.8592    	-138.843430 
 136  	7.9179    	-138.987183 
 137  	7.9765    	-138.268433 
 138  	8.0352    	-137.405945 
 139  	8.0938    	-138.484070 
 140  	8.1525    	-138.987183 
 141  	8.2111    	-137.909058 
 142  	8.2698    	-137.909058 
 143  	8.3284    	-137.190308 
 144  	8.3871    	-137.621582 
 145  	8.4457    	-138.555908 
 146  	8.5044    	-138.412170 
 147  	8.5630    	-138.484070 
 148  	8.6217    	-137.621582 
 149  	8.6804    	-137.693420 
 150  	8.7390    	-138.699707 
 151  	8.7977    	-137.765320 
 152  	8.8563    	-137.837158 
 153  	8.9150    	-137.405945 
 154  	8.9736    	-136.974655 
 155  	9.0323    	-137.405945 
 156  	9.0909    	-137.980957 
 157  	9.1496    	-137.765320 
 158  	9.2082    	-138.052795 
 159  	9.2669    	-137.334045 
 160  	9.3255    	-137.909058 
 161  	9.3842    	-136.615295 
 162  	9.4428    	-136.902832 
 163  	9.5015    	-137.190308 
 164  	9.5601    	-137.621582 
 165  	9.6188    	-136.902832 
 166  	9.6774    	-136.687195 
 167  	9.7361    	-136.974655 
 168  	9.7947    	-136.040283 
 169  	9.8534    	-136.327820 
 170  	9.9120    	-136.471558 
 171  	9.9707    	-136.615295 
 172  	10.0293   	-136.543457 
 173  	10.0880   	-136.759033 
 174  	10.1466   	-137.477783 
 175  	10.2053   	-136.902832 
 176  	10.2639   	-137.621582 
 177  	10.3226   	-136.902832 
 178  	10.3812   	-137.190308 
 179  	10.4399   	-137.980957 
 180  	10.4985   	-136.974655 
 181  	10.5572   	-136.255920 
 182  	10.6158   	-136.687195 
 183  	10.6745   	-137.477783 
 184  	10.7331   	-137.118408 
 185  	10.7918   	-138.412170 
 186  	10.8504   	-138.555908 
 187  	10.9091   	-137.765320 
 188  	10.9677   	-136.543457 
 189  	11.0264   	-137.765320 
 190  	11.0850   	-137.621582 
 191  	11.1437   	-137.118408 
 192  	11.2023   	-137.046570 
 193  	11.2610   	-137.477783 
 194  	11.3196   	-136.543457 
 195  	11.3783   	-137.046570 
 196  	11.4370   	-137.477783 
 197  	11.4956   	-136.687195 
 198  	11.5543   	-137.046570 
 199  	11.6129   	-136.615295 
 200  	11.6716   	-137.190308 
 201  	11.7302   	-136.759033 
 202  	11.7889   	-136.615295 
 203  	11.8475   	-135.177795 
 204  	11.9062   	-135.680908 
 205  	11.9648   	-135.824707 
 206  	12.0235   	-136.759033 
 207  	12.0821   	-136.830933 
 208  	12.1408   	-136.759033 
 209  	12.1994   	-136.974655 
 210  	12.2581   	-136.184082 
 211  	12.3167   	-135.680908 
 212  	12.3754   	-135.249695 
 213  	12.4340   	-136.255920 
 214  	12.4927   	-135.249695 
 215  	12.5513   	-136.184082 
 216  	12.6100   	-136.399658 
 217  	12.6686   	-136.184082 
 218  	12.7273   	-136.471558 
 219  	12.7859   	-136.255920 
 220  	12.8446   	-136.255920 
 221  	12.9032   	-135.896545 
 222  	12.9619   	-135.680908 
 223  	13.0205   	-135.680908 
 224  	13.0792   	-136.255920 
 225  	13.1378   	-136.759033 
 226  	13.1965   	-136.974655 
 227  	13.2551   	-136.471558 
 228  	13.3138   	-137.118408 
 229  	13.3724   	-137.118408 
 230  	13.4311   	-136.543457 
 231  	13.4897   	-137.693420 
 232  	13.5484   	-137.477783 
 233  	13.6070   	-136.974655 
 234  	13.6657   	-136.830933 
 235  	13.7243   	-136.327820 
 236  	13.7830   	-136.399658 
 237  	13.8416   	-135.537170 
 238  	13.9003   	-135.321533 
 239  	13.9589   	-135.896545 
 240  	14.0176   	-136.184082 
 241  	14.0762   	-137.262207 
 242  	14.1349   	-136.543457 
 243  	14.1935   	-135.752808 
 244  	14.2522   	-136.471558 
 245  	14.3109   	-136.040283 
 246  	14.3695   	-135.896545 
 247  	14.4282   	-136.615295 
 248  	14.4868   	-137.405945 
 249  	14.5455   	-137.334045 
 250  	14.6041   	-137.334045 
 251  	14.6628   	-136.902832 
 252  	14.7214   	-136.759033 
 253  	14.7801   	-135.824707 
 254  	14.8387   	-135.968445 
 255  	14.8974   	-136.112183 
 256  	14.9560   	-136.615295 
 257  	15.0147   	-136.615295 
 258  	15.0733   	-136.112183 
 259  	15.1320   	-137.334045 
 260  	15.1906   	-136.902832 
 261  	15.2493   	-136.974655 
 262  	15.3079   	-136.112183 
 263  	15.3666   	-136.255920 
 264  	15.4252   	-136.040283 
 265  	15.4839   	-135.968445 
 266  	15.5425   	-135.752808 
 267  	15.6012   	-136.184082 
 268  	15.6598   	-135.968445 
 269  	15.7185   	-135.249695 
 270  	15.7771   	-135.752808 
 271  	15.8358   	-135.609055 
 272  	15.8944   	-135.465332 
 273  	15.9531   	-134.818420 
 274  	16.0117   	-134.818420 
 275  	16.0704   	-133.380920 
 276  	16.1290   	-134.890320 
 277  	16.1877   	-134.459045 
 278  	16.2463   	-132.518433 
 279  	16.3050   	-133.309082 
 280  	16.3636   	-132.734070 
 281  	16.4223   	-132.230957 
 282  	16.4809   	-131.512207 
 283  	16.5396   	-129.427795 
 284  	16.5982   	-127.774658 
 285  	16.6569   	-125.330925 
 286  	16.7155   	-124.899658 
 287  	16.7742   	-124.899658 
 288  	16.8328   	-122.527824 
 289  	16.8915   	-116.418457 
 290  	16.9501   	-93.849670  
 291  	17.0088   	-73.221558  
 292  	17.0674   	-55.396603  
 293  	17.1261   	-42.387207  
 294  	17.1848   	-32.396606  
 295  	17.2434   	-22.549683  
 296  	17.3021   	-15.649658  
 297  	17.3607   	-9.684082   
 298  	17.4194   	-5.874633   
 299  	17.4780   	-2.640259   
 300  	17.5367   	5.194092    
 301  	17.5953   	30.206543   
 302  	17.6540   	49.253418   
 303  	17.7126   	66.719116   
 304  	17.7713   	78.722168   
 305  	17.8299   	88.569092   
 306  	17.8886   	97.481567   
 307  	17.9472   	102.440918  
 308  	18.0059   	106.609741  
 309  	18.0645   	109.844116  
 310  	18.1232   	113.653442  
 311  	18.1818   	115.450317  
 312  	18.2405   	117.965935  
 313  	18.2991   	120.122192  
 314  	18.3578   	122.781616  
 315  	18.4164   	124.003410  
 316  	18.4751   	125.225342  
 317  	18.5337   	126.590942  
 318  	18.5924   	127.597168  
 319  	18.6510   	128.819092  
 320  	18.7097   	129.681519  
 321  	18.7683   	130.328491  
 322  	18.8270   	130.256592  
 323  	18.8856   	130.975342  
 324  	18.9443   	131.334702  
 325  	19.0029   	132.772217  
 326  	19.0616   	132.915894  
 327  	19.1202   	133.994019  
 328  	19.1789   	134.640991  
 329  	19.2375   	134.856567  
 330  	19.2962   	134.928467  
 331  	19.3548   	135.647217  
 332  	19.4135   	135.072144  
 333  	19.4721   	135.287842  
 334  	19.5308   	135.575317  
 335  	19.5894   	135.575317  
 336  	19.6481   	135.647217  
 337  	19.7067   	136.509644  
 338  	19.7654   	136.437851  
 339  	19.8240   	136.653442  
 340  	19.8827   	136.365967  
 341  	19.9413   	137.803467  
 342  	20.0000   	137.300293  
 343  	20.0587   	137.875366  
 344  	20.1173   	138.090942  
 345  	20.1760   	137.587769  
 346  	20.2346   	137.515991  
 347  	20.2933   	138.019043  
 348  	20.3519   	137.372192  
 349  	20.4106   	137.228394  
 350  	20.4692   	137.228394  
 351  	20.5279   	137.659668  
 352  	20.5865   	138.234741  
 353  	20.6452   	138.162842  
 354  	20.7038   	138.522217  
 355  	20.7625   	137.084717  
 356  	20.8211   	138.594116  
 357  	20.8798   	138.306519  
 358  	20.9384   	138.737793  
 359  	20.9971   	139.384644  
 360  	21.0557   	139.959717  
 361  	21.1144   	139.959717  
 362  	21.1730   	139.815918  
 363  	21.2317   	140.462769  
 364  	21.2903   	139.959717  
 365  	21.3490   	140.103394  
 366  	21.4076   	139.815918  
 367  	21.4663   	140.247192  
 368  	21.5249   	141.037842  
 369  	21.5836   	140.894043  
 370  	21.6422   	141.540894  
 371  	21.7009   	141.397217  
 372  	21.7595   	140.822144  
 373  	21.8182   	141.037842  
 374  	21.8768   	141.469116  
 375  	21.9355   	140.894043  
 376  	21.9941   	141.828491  
 377  	22.0528   	140.822144  
 378  	22.1114   	140.534668  
 379  	22.1701   	140.894043  
 380  	22.2287   	140.319092  
 381  	22.2874   	140.103394  
 382  	22.3460   	140.390991  
 383  	22.4047   	140.462769  
 384  	22.4633   	140.390991  
 385  	22.5220   	140.534668  
 386  	22.5806   	140.390991  
 387  	22.6393   	140.247192  
 388  	22.6979   	139.815918  
 389  	22.7566   	139.887817  
 390  	22.8152   	139.672241  
 391  	22.8739   	139.456543  
 392  	22.9326   	138.953491  
 393  	22.9912   	138.162842  
 394  	23.0499   	138.953491  
 395  	23.1085   	139.528442  
 396  	23.1672   	138.234741  
 397  	23.2258   	139.240967  
 398  	23.2845   	138.234741  
 399  	23.3431   	137.947144  
 400  	23.4018   	138.881592  
 401  	23.4604   	138.594116  
 402  	23.5191   	137.659668  
 403  	23.5777   	139.025269  
 404  	23.6364   	138.378418  
 405  	23.6950   	138.665894  
 406  	23.7537   	137.731567  
 407  	23.8123   	137.084717  
 408  	23.8710   	136.437851  
 409  	23.9296   	136.581543  
 410  	23.9883   	137.012817  
 411  	24.0469   	135.719116  
 412  	24.1056   	136.437851  
 413  	24.1642   	135.934692  
 414  	24.2229   	136.797241  
 415  	24.2815   	136.222168  
 416  	24.3402   	135.575317  
 417  	24.3988   	135.575317  
 418  	24.4575   	135.503418  
 419  	24.5161   	136.222168  
 420  	24.5748   	135.144043  
 421  	24.6334   	135.215942  
 422  	24.6921   	134.353394  
 423  	24.7507   	134.281616  
 424  	24.8094   	134.353394  
 425  	24.8680   	133.347168  
 426  	24.9267   	133.347168  
 427  	24.9853   	133.634644  
 428  	25.0440   	134.065918  
 429  	25.1026   	133.778442  
 430  	25.1613   	133.850342  
 431  	25.2199   	133.850342  
 432  	25.2786   	133.706543  
 433  	25.3372   	134.353394  
 434  	25.3959   	134.137817  
 435  	25.4545   	133.562866  
 436  	25.5132   	134.137817  
 437  	25.5718   	132.844116  
 438  	25.6305   	132.412842  
 439  	25.6891   	131.406616  
 440  	25.7478   	131.765991  
 441  	25.8065   	132.340942  
 442  	25.8651   	133.419067  
 443  	25.9238   	133.634644  
 444  	25.9824   	134.928467  
 445  	26.0411   	133.778442  
 446  	26.0997   	133.994019  
 447  	26.1584   	134.425293  
 448  	26.2170   	133.347168  
 449  	26.2757   	133.778442  
 450  	26.3343   	133.922241  
 451  	26.3930   	133.994019  
 452  	26.4516   	133.562866  
 453  	26.5103   	132.987793  
 454  	26.5689   	133.634644  
 455  	26.6276   	132.915894  
 456  	26.6862   	133.275269  
 457  	26.7449   	133.778442  
 458  	26.8035   	132.484741  
 459  	26.8622   	132.556519  
 460  	26.9208   	132.987793  
 461  	26.9795   	133.419067  
 462  	27.0381   	132.556519  
 463  	27.0968   	132.484741  
 464  	27.1554   	132.340942  
 465  	27.2141   	132.197144  
 466  	27.2727   	130.831543  
 467  	27.3314   	132.915894  
 468  	27.3900   	132.700317  
 469  	27.4487   	132.197144  
 470  	27.5073   	131.406616  
 471  	27.5660   	130.184692  
 472  	27.6246   	129.681519  
 473  	27.6833   	129.250366  
 474  	27.7419   	128.100327  
 475  	27.8006   	126.806511  
 476  	27.8592   	126.447144  
 477  	27.9179   	125.297241  
 478  	27.9765   	124.219116  
 479  	28.0352   	122.637810  
 480  	28.0938   	121.487793  
 481  	28.1525   	120.337761  
 482  	28.2111   	119.547241  
 483  	28.2698   	116.815918  
 484  	28.3284   	114.731560  
 485  	28.3871   	113.437859  
 486  	28.4457   	111.928459  
 487  	28.5044   	111.497185  
 488  	28.5630   	109.628410  
 489  	28.6217   	108.119019  
 490  	28.6804   	106.537842  
 491  	28.7390   	104.812866  
 492  	28.7977   	103.087761  
 493  	28.8563   	99.997185   
 494  	28.9150   	97.840942   
 495  	28.9736   	95.037842   
 496  	29.0323   	92.665894   
 497  	29.0909   	90.078491   
 498  	29.1496   	88.137817   
 499  	29.2082   	86.556519   
 500  	29.2669   	83.034668   
 501  	29.3255   	80.590942   
 502  	29.3842   	79.009644   
 503  	29.4428   	76.206543   
 504  	29.5015   	73.331543   
 505  	29.5601   	70.312866   
 506  	29.6188   	67.940918   
 507  	29.6774   	64.706543   
 508  	29.7361   	62.406612   
 509  	29.7947   	59.962769   
 510  	29.8534   	56.369015   
 511  	29.9120   	53.278442   
 512  	29.9707   	49.828491   
 513  	30.0293   	46.522217   
 514  	30.0880   	44.006592   
 515  	30.1466   	40.628418   
 516  	30.2053   	37.106567   
 517  	30.2639   	34.159668   
 518  	30.3226   	30.637815   
 519  	30.3812   	27.619017   
 520  	30.4399   	24.744019   
 521  	30.4985   	20.575317   
 522  	30.5572   	17.484741   
 523  	30.6158   	13.675293   
 524  	30.6745   	9.290894    
 525  	30.7331   	5.840942    
 526  	30.7918   	1.384643    
 527  	30.8504   	-2.855957   
 528  	30.9091   	-5.659058   
 529  	30.9677   	-9.324707   
 530  	31.0264   	-14.140259  
 531  	31.0850   	-17.518433  
 532  	31.1437   	-21.543457  
 533  	31.2023   	-24.993408  
 534  	31.2610   	-28.371582  
 535  	31.3196   	-32.324707  
 536  	31.3783   	-34.840332  
 537  	31.4370   	-37.859005  
 538  	31.4956   	-41.524658  
 539  	31.5543   	-45.046509  
 540  	31.6129   	-47.130981  
 541  	31.6716   	-51.084106  
 542  	31.7302   	-52.593384  
 543  	31.7889   	-55.037231  
 544  	31.8475   	-57.480957  
 545  	31.9062   	-60.427853  
 546  	31.9648   	-62.296509  
 547  	32.0235   	-65.099670  
 548  	32.0821   	-67.902832  
 549  	32.1408   	-70.130920  
 550  	32.1994   	-73.149658  
 551  	32.2581   	-73.940308  
 552  	32.3167   	-76.599670  
 553  	32.3754   	-77.893433  
 554  	32.4340   	-80.409058  
 555  	32.4927   	-82.565300  
 556  	32.5513   	-85.152832  
 557  	32.6100   	-88.818420  
 558  	32.6686   	-91.118408  
 559  	32.7273   	-93.418449  
 560  	32.7859   	-94.496582  
 561  	32.8446   	-96.940308  
 562  	32.9032   	-98.593445  
 563  	32.9619   	-100.246582 
 564  	33.0205   	-101.971558 
 565  	33.0792   	-103.193420 
 566  	33.1378   	-104.559074 
 567  	33.1965   	-106.859070 
 568  	33.2551   	-108.584045 
 569  	33.3138   	-110.524651 
 570  	33.3724   	-112.105957 
 571  	33.4311   	-113.974663 
 572  	33.4897   	-114.693420 
 573  	33.5484   	-116.777832 
 574  	33.6070   	-118.143433 
 575  	33.6657   	-118.143433 
 576  	33.7243   	-118.646545 
 577  	33.7830   	-119.365295 
 578  	33.8416   	-120.515312 
 579  	33.9003   	-121.305908 
 580  	33.9589   	-121.665283 
 581  	34.0176   	-122.887207 
 582  	34.0762   	-122.887207 
 583  	34.1349   	-123.821526 
 584  	34.1935   	-124.755920 
 585  	34.2522   	-126.265320 
 586  	34.3109   	-126.049683 
 587  	34.3695   	-126.696526 
 588  	34.4282   	-127.990295 
 589  	34.4868   	-128.493408 
 590  	34.5455   	-129.571533 
 591  	34.6041   	-129.643433 
 592  	34.6628   	-129.859070 
 593  	34.7214   	-129.930908 
 594  	34.7801   	-131.584045 
 595  	34.8387   	-131.440308 
 596  	34.8974   	-132.518433 
 597  	34.9560   	-132.949707 
 598  	35.0147   	-132.374680 
 599  	35.0733   	-131.655945 
 600  	35.1320   	-132.446533 
 601  	35.1906   	-133.668457 
 602  	35.2493   	-132.374680 
 603  	35.3079   	-132.805908 
 604  	35.3666   	-133.165283 
 605  	35.4252   	-133.309082 
 606  	35.4839   	-132.805908 
 607  	35.5425   	-132.805908 
 608  	35.6012   	-133.740280 
 609  	35.6598   	-133.021545 
 610  	35.7185   	-133.740280 
 611  	35.7771   	-133.093445 
 612  	35.8358   	-133.955933 
 613  	35.8944   	-134.243408 
 614  	35.9531   	-134.674683 
 615  	36.0117   	-134.818420 
 616  	36.0704   	-134.602783 
 617  	36.1290   	-135.177795 
 618  	36.1877   	-134.746582 
 619  	36.2463   	-134.962158 
 620  	36.3050   	-135.537170 
 621  	36.3636   	-135.105957 
 622  	36.4223   	-135.609055 
 623  	36.4809   	-135.177795 
 624  	36.5396   	-135.393433 
 625  	36.5982   	-135.609055 
 626  	36.6569   	-135.249695 
 627  	36.7155   	-135.393433 
 628  	36.7742   	-136.112183 
 629  	36.8328   	-136.184082 
 630  	36.8915   	-136.471558 
 631  	36.9501   	-136.327820 
 632  	37.0088   	-136.759033 
 633  	37.0674   	-137.980957 
 634  	37.1261   	-137.621582 
 635  	37.1848   	-137.477783 
 636  	37.2434   	-136.902832 
 637  	37.3021   	-136.399658 
 638  	37.3607   	-136.543457 
 639  	37.4194   	-135.752808 
 640  	37.4780   	-135.321533 
 641  	37.5367   	-134.315308 
 642  	37.5953   	-133.740280 
 643  	37.6540   	-133.596558 
 644  	37.7126   	-132.949707 
 645  	37.7713   	-130.362183 
 646  	37.8299   	-119.652832 
 647  	37.8886   	-109.949707 
 648  	37.9472   	-106.499687 
 649  	38.0059   	-104.774658 
 650  	38.0645   	-105.996582 
 651  	38.1232   	-107.218445 
 652  	38.1818   	-108.224670 
 653  	38.2405   	-110.093445 
 654  	38.2991   	-111.530945 
 655  	38.3578   	-112.609062 
 656  	38.4164   	-113.902832 
 657  	38.4751   	-105.349670 
 658  	38.5337   	-99.240295  
 659  	38.5924   	-95.862183  
 660  	38.6510   	-95.862183  
 661  	38.7097   	-98.018425  
 662  	38.7683   	-100.390320 
 663  	38.8270   	-102.977783 
 664  	38.8856   	-106.787170 
 665  	38.9443   	-110.093445 
 666  	39.0029   	-113.543457 
 667  	39.0616   	-115.987175 
 668  	39.1202   	-118.862175 
 669  	39.1789   	-120.515312 
 670  	39.2375   	-121.449707 
 671  	39.2962   	-122.599670 
 672  	39.3548   	-124.037163 
 673  	39.4135   	-125.115288 
 674  	39.4721   	-126.121582 
 675  	39.5308   	-126.984062 
 676  	39.5894   	-127.846558 
 677  	39.6481   	-128.421570 
 678  	39.7067   	-129.427795 
 679  	39.7654   	-129.787170 
 680  	39.8240   	-130.505905 
 681  	39.8827   	-130.649658 
 682  	39.9413   	-131.224670 
 683  	40.0000   	-130.649658 
 684  	40.0587   	-130.865295 
 685  	40.1173   	-131.224670 
 686  	40.1760   	-131.799683 
 687  	40.2346   	-131.224670 
 688  	40.2933   	-131.943420 
 689  	40.3519   	-131.655945 
 690  	40.4106   	-132.662170 
 691  	40.4692   	-133.596558 
 692  	40.5279   	-134.243408 
 693  	40.5865   	-134.818420 
 694  	40.6452   	-135.034058 
 695  	40.7038   	-135.896545 
 696  	40.7625   	-136.040283 
 697  	40.8211   	-136.112183 
 698  	40.8798   	-136.543457 
 699  	40.9384   	-136.112183 
 700  	40.9971   	-135.968445 
 701  	41.0557   	-136.543457 
 702  	41.1144   	-136.902832 
 703  	41.1730   	-137.621582 
 704  	41.2317   	-138.699707 
 705  	41.2903   	-139.059082 
 706  	41.3490   	-138.627808 
 707  	41.4076   	-137.909058 
 708  	41.4663   	-138.484070 
 709  	41.5249   	-138.340332 
 710  	41.5836   	-138.915283 
 711  	41.6422   	-138.052795 
 712  	41.7009   	-137.046570 
 713  	41.7595   	-137.118408 
 714  	41.8182   	-136.974655 
 715  	41.8768   	-137.693420 
 716  	41.9355   	-138.843430 
 717  	41.9941   	-138.699707 
 718  	42.0528   	-138.699707 
 719  	42.1114   	-139.059082 
 720  	42.1701   	-139.562195 
 721  	42.2287   	-139.490295 
 722  	42.2874   	-139.418457 
 723  	42.3460   	-139.921570 
 724  	42.4047   	-139.993408 
 725  	42.4633   	-140.280945 
 726  	42.5220   	-139.849670 
 727  	42.5806   	-140.712158 
 728  	42.6393   	-140.568420 
 729  	42.6979   	-140.568420 
 730  	42.7566   	-141.215332 
 731  	42.8152   	-140.855957 
 732  	42.8739   	-141.215332 
 733  	42.9326   	-141.430908 
 734  	42.9912   	-140.784058 
 735  	43.0499   	-140.999695 
 736  	43.1085   	-140.280945 
 737  	43.1672   	-139.777832 
 738  	43.2258   	-139.705933 
 739  	43.2845   	-141.071533 
 740  	43.3431   	-141.287170 
 741  	43.4018   	-141.287170 
 742  	43.4604   	-140.352783 
 743  	43.5191   	-139.418457 
 744  	43.5777   	-139.705933 
 745  	43.6364   	-139.705933 
 746  	43.6950   	-139.993408 
 747  	43.7537   	-140.496582 
 748  	43.8123   	-140.209030 
 749  	43.8710   	-140.352783 
 750  	43.9296   	-140.137207 
 751  	43.9883   	-140.999695 
 752  	44.0469   	-141.502808 
 753  	44.1056   	-141.646545 
 754  	44.1642   	-141.790283 
 755  	44.2229   	-141.430908 
 756  	44.2815   	-141.862183 
 757  	44.3402   	-140.640320 
 758  	44.3988   	-140.784058 
 759  	44.4575   	-140.999695 
 760  	44.5161   	-141.071533 
 761  	44.5748   	-141.071533 
 762  	44.6334   	-140.640320 
 763  	44.6921   	-140.424683 
 764  	44.7507   	-140.065308 
 765  	44.8094   	-140.352783 
 766  	44.8680   	-140.712158 
 767  	44.9267   	-140.496582 
 768  	44.9853   	-140.927795 
 769  	45.0440   	-140.568420 
 770  	45.1026   	-140.496582 
 771  	45.1613   	-140.855957 
 772  	45.2199   	-141.359070 
 773  	45.2786   	-140.784058 
 774  	45.3372   	-140.568420 
 775  	45.3959   	-141.646545 
 776  	45.4545   	-141.287170 
 777  	45.5132   	-141.574707 
 778  	45.5718   	-141.574707 
 779  	45.6305   	-141.718445 
 780  	45.6891   	-141.862183 
 781  	45.7478   	-142.580933 
 782  	45.8065   	-142.005920 
 783  	45.8651   	-142.077805 
 784  	45.9238   	-142.149658 
 785  	45.9824   	-141.718445 
 786  	46.0411   	-140.999695 
 787  	46.0997   	-141.287170 
 788  	46.1584   	-141.574707 
 789  	46.2170   	-141.790283 
 790  	46.2757   	-140.927795 
 791  	46.3343   	-140.784058 
 792  	46.3930   	-141.143433 
 793  	46.4516   	-141.430908 
 794  	46.5103   	-141.934082 
 795  	46.5689   	-142.293457 
 796  	46.6276   	-142.509033 
 797  	46.6862   	-142.365295 
 798  	46.7449   	-142.365295 
 799  	46.8035   	-142.437195 
 800  	46.8622   	-141.574707 
 801  	46.9208   	-141.646545 
 802  	46.9795   	-142.868408 
 803  	47.0381   	-142.868408 
 804  	47.0968   	-142.724670 
 805  	47.1554   	-142.868408 
 806  	47.2141   	-142.365295 
 807  	47.2727   	-142.293457 
 808  	47.3314   	-142.293457 
 809  	47.3900   	-142.796570 
 810  	47.4487   	-142.940308 
 811  	47.5073   	-142.724670 
 812  	47.5660   	-142.652832 
 813  	47.6246   	-142.724670 
 814  	47.6833   	-141.862183 
 815  	47.7419   	-141.862183 
 816  	47.8006   	-141.790283 
 817  	47.8592   	-142.005920 
 818  	47.9179   	-142.005920 
 819  	47.9765   	-141.574707 
 820  	48.0352   	-142.365295 
 821  	48.0938   	-141.071533 
 822  	48.1525   	-141.574707 
 823  	48.2111   	-141.215332 
 824  	48.2698   	-140.999695 
 825  	48.3284   	-141.359070 
 826  	48.3871   	-141.359070 
 827  	48.4457   	-141.646545 
 828  	48.5044   	-142.149658 
 829  	48.5630   	-142.580933 
 830  	48.6217   	-143.012207 
 831  	48.6804   	-141.934082 
 832  	48.7390   	-141.790283 
 833  	48.7977   	-142.509033 
 834  	48.8563   	-142.005920 
 835  	48.9150   	-142.796570 
 836  	48.9736   	-143.299683 
 837  	49.0323   	-142.509033 
 838  	49.0909   	-141.862183 
 839  	49.1496   	-142.221558 
 840  	49.2082   	-141.430908 
 841  	49.2669   	-141.502808 
 842  	49.3255   	-141.143433 
 843  	49.3842   	-141.862183 
 844  	49.4428   	-140.855957 
 845  	49.5015   	-141.359070 
 846  	49.5601   	-141.718445 
 847  	49.6188   	-141.574707 
 848  	49.6774   	-142.293457 
 849  	49.7361   	-142.221558 
 850  	49.7947   	-141.790283 
 851  	49.8534   	-141.862183 
 852  	49.9120   	-140.999695 
 853  	49.9707   	-141.862183 
 854  	50.0293   	-140.927795 
 855  	50.0880   	-140.568420 
 856  	50.1466   	-142.437195 
 857  	50.2053   	-142.652832 
 858  	50.2639   	-142.940308 
 859  	50.3226   	-143.012207 
 860  	50.3812   	-143.227783 
 861  	50.4399   	-143.227783 
 862  	50.4985   	-142.149658 
 863  	50.5572   	-142.365295 
 864  	50.6158   	-142.652832 
 865  	50.6745   	-143.515320 
 866  	50.7331   	-143.084045 
 867  	50.7918   	-142.796570 
 868  	50.8504   	-143.659058 
 869  	50.9091   	-142.580933 
 870  	50.9677   	-142.796570 
 871  	51.0264   	-141.287170 
 872  	51.0850   	-142.005920 
 873  	51.1437   	-141.646545 
 874  	51.2023   	-140.280945 
 875  	51.2610   	-141.502808 
 876  	51.3196   	-141.143433 
 877  	51.3783   	-141.790283 
 878  	51.4370   	-142.077805 
 879  	51.4956   	-142.940308 
 880  	51.5543   	-142.149658 
 881  	51.6129   	-142.077805 
 882  	51.6716   	-141.790283 
 883  	51.7302   	-141.430908 
 884  	51.7889   	-141.287170 
 885  	51.8475   	-141.071533 
 886  	51.9062   	-141.790283 
 887  	51.9648   	-141.287170 
 888  	52.0235   	-141.646545 
 889  	52.0821   	-140.999695 
 890  	52.1408   	-141.287170 
 891  	52.1994   	-141.215332 
 892  	52.2581   	-141.430908 
 893  	52.3167   	-141.430908 
 894  	52.3754   	-141.502808 
 895  	52.4340   	-141.718445 
 896  	52.4927   	-142.005920 
 897  	52.5513   	-142.005920 
 898  	52.6100   	-142.149658 
 899  	52.6686   	-142.365295 
 900  	52.7273   	-142.221558 
 901  	52.7859   	-141.502808 
 902  	52.8446   	-140.712158 
 903  	52.9032   	-140.712158 
 904  	52.9619   	-140.640320 
 905  	53.0205   	-140.640320 
 906  	53.0792   	-141.215332 
 907  	53.1378   	-140.784058 
 908  	53.1965   	-141.287170 
 909  	53.2551   	-141.287170 
 910  	53.3138   	-141.215332 
 911  	53.3724   	-141.430908 
 912  	53.4311   	-141.071533 
 913  	53.4897   	-141.430908 
 914  	53.5484   	-140.496582 
 915  	53.6070   	-141.359070 
 916  	53.6657   	-140.784058 
 917  	53.7243   	-141.143433 
 918  	53.7830   	-141.359070 
 919  	53.8416   	-140.640320 
 920  	53.9003   	-141.646545 
 921  	53.9589   	-141.574707 
 922  	54.0176   	-140.712158 
 923  	54.0762   	-140.640320 
 924  	54.1349   	-140.137207 
 925  	54.1935   	-139.921570 
 926  	54.2522   	-139.202820 
 927  	54.3109   	-139.921570 
 928  	54.3695   	-140.352783 
 929  	54.4282   	-139.202820 
 930  	54.4868   	-139.777832 
 931  	54.5455   	-139.130920 
 932  	54.6041   	-138.627808 
 933  	54.6628   	-138.915283 
 934  	54.7214   	-139.346558 
 935  	54.7801   	-139.634033 
 936  	54.8387   	-139.490295 
 937  	54.8974   	-139.705933 
 938  	54.9560   	-139.921570 
 939  	55.0147   	-140.137207 
 940  	55.0733   	-139.705933 
 941  	55.1320   	-140.712158 
 942  	55.1906   	-139.849670 
 943  	55.2493   	-139.634033 
 944  	55.3079   	-139.059082 
 945  	55.3666   	-139.274658 
 946  	55.4252   	-140.640320 
 947  	55.4839   	-139.777832 
 948  	55.5425   	-140.424683 
 949  	55.6012   	-139.993408 
 950  	55.6598   	-140.568420 
 951  	55.7185   	-140.424683 
 952  	55.7771   	-141.071533 
 953  	55.8358   	-140.640320 
 954  	55.8944   	-139.274658 
 955  	55.9531   	-139.418457 
 956  	56.0117   	-139.274658 
 957  	56.0704   	-138.627808 
 958  	56.1290   	-138.915283 
 959  	56.1877   	-139.705933 
 960  	56.2463   	-140.424683 
 961  	56.3050   	-139.849670 
 962  	56.3636   	-139.274658 
 963  	56.4223   	-138.627808 
 964  	56.4809   	-138.124695 
 965  	56.5396   	-137.477783 
 966  	56.5982   	-138.052795 
 967  	56.6569   	-137.334045 
 968  	56.7155   	-137.909058 
 969  	56.7742   	-138.268433 
 970  	56.8328   	-138.268433 
 971  	56.8915   	-139.130920 
 972  	56.9501   	-139.634033 
 973  	57.0088   	-139.346558 
 974  	57.0674   	-139.059082 
 975  	57.1261   	-139.418457 
 976  	57.1848   	-139.130920 
 977  	57.2434   	-139.346558 
 978  	57.3021   	-139.705933 
 979  	57.3607   	-139.849670 
 980  	57.4194   	-140.209030 
 981  	57.4780   	-139.993408 
 982  	57.5367   	-139.634033 
 983  	57.5953   	-140.280945 
 984  	57.6540   	-139.705933 
 985  	57.7126   	-140.424683 
 986  	57.7713   	-139.418457 
 987  	57.8299   	-139.562195 
 988  	57.8886   	-140.209030 
 989  	57.9472   	-140.137207 
 990  	58.0059   	-139.346558 
 991  	58.0645   	-139.634033 
 992  	58.1232   	-138.771545 
 993  	58.1818   	-139.849670 
 994  	58.2405   	-139.202820 
 995  	58.2991   	-139.634033 
 996  	58.3578   	-139.705933 
 997  	58.4164   	-140.209030 
 998  	58.4751   	-139.777832 
 999  	58.5337   	-139.130920 
 1000 	58.5924   	-138.268433 
 1001 	58.6510   	-138.771545 
 1002 	58.7097   	-138.627808 
 1003 	58.7683   	-138.052795 
 1004 	58.8270   	-137.621582 
 1005 	58.8856   	-138.196533 
 1006 	58.9443   	-137.334045 
 1007 	59.0029   	-138.124695 
 1008 	59.0616   	-136.974655 
 1009 	59.1202   	-136.112183 
 1010 	59.1789   	-135.968445 
 1011 	59.2375   	-136.543457 
 1012 	59.2962   	-136.974655 
 1013 	59.3548   	-137.046570 
 1014 	59.4135   	-136.830933 
 1015 	59.4721   	-137.477783 
 1016 	59.5308   	-137.190308 
 1017 	59.5894   	-137.262207 
 1018 	59.6481   	-137.262207 
 1019 	59.7067   	-137.118408 
 1020 	59.7654   	-137.118408 
 1021 	59.8240   	-136.040283 
 1022 	59.8827   	-136.615295 
 1023 	59.9413   	-136.830933 
 1024 	60.0000   	-137.262207 

