
      	X(nS)     	Ch1(mV)      


 1    	0.0000    	-27.615662  
 2    	0.0587    	-28.190674  
 3    	0.1173    	-27.975035  
 4    	0.1760    	-27.471922  
 5    	0.2346    	-27.975035  
 6    	0.2933    	-27.903196  
 7    	0.3519    	-27.400084  
 8    	0.4106    	-27.328186  
 9    	0.4692    	-27.040710  
 10   	0.5279    	-27.256287  
 11   	0.5865    	-27.040710  
 12   	0.6452    	-27.184448  
 13   	0.7038    	-26.968813  
 14   	0.7625    	-27.256287  
 15   	0.8211    	-27.040710  
 16   	0.8798    	-26.465698  
 17   	0.9384    	-27.256287  
 18   	0.9971    	-26.896912  
 19   	1.0557    	-26.106325  
 20   	1.1144    	-26.393799  
 21   	1.1730    	-26.393799  
 22   	1.2317    	-25.603210  
 23   	1.2903    	-25.675049  
 24   	1.3490    	-26.106325  
 25   	1.4076    	-25.746946  
 26   	1.4663    	-26.034424  
 27   	1.5249    	-24.956297  
 28   	1.5836    	-25.531311  
 29   	1.6422    	-25.387573  
 30   	1.7009    	-26.609434  
 31   	1.7595    	-27.256287  
 32   	1.8182    	-27.040710  
 33   	1.8768    	-27.687561  
 34   	1.9355    	-28.262571  
 35   	1.9941    	-28.334410  
 36   	2.0528    	-26.681335  
 37   	2.1114    	-26.609434  
 38   	2.1701    	-27.040710  
 39   	2.2287    	-27.256287  
 40   	2.2874    	-27.184448  
 41   	2.3460    	-28.118835  
 42   	2.4047    	-28.046936  
 43   	2.4633    	-28.118835  
 44   	2.5220    	-28.046936  
 45   	2.5806    	-27.831301  
 46   	2.6393    	-27.831301  
 47   	2.6979    	-28.190674  
 48   	2.7566    	-27.256287  
 49   	2.8152    	-26.968813  
 50   	2.8739    	-27.256287  
 51   	2.9326    	-27.687561  
 52   	2.9912    	-27.615662  
 53   	3.0499    	-27.615662  
 54   	3.1085    	-27.543823  
 55   	3.1672    	-27.256287  
 56   	3.2258    	-27.400084  
 57   	3.2845    	-27.256287  
 58   	3.3431    	-27.903196  
 59   	3.4018    	-27.400084  
 60   	3.4604    	-27.615662  
 61   	3.5191    	-27.040710  
 62   	3.5777    	-27.184448  
 63   	3.6364    	-26.178164  
 64   	3.6950    	-25.890686  
 65   	3.7537    	-26.321960  
 66   	3.8123    	-25.890686  
 67   	3.8710    	-27.112549  
 68   	3.9296    	-26.609434  
 69   	3.9883    	-26.609434  
 70   	4.0469    	-26.321960  
 71   	4.1056    	-25.962585  
 72   	4.1642    	-25.675049  
 73   	4.2229    	-25.818785  
 74   	4.2815    	-25.603210  
 75   	4.3402    	-26.034424  
 76   	4.3988    	-26.393799  
 77   	4.4575    	-26.393799  
 78   	4.5161    	-26.178164  
 79   	4.5748    	-26.393799  
 80   	4.6334    	-26.537537  
 81   	4.6921    	-26.393799  
 82   	4.7507    	-27.112549  
 83   	4.8094    	-27.903196  
 84   	4.8680    	-27.543823  
 85   	4.9267    	-27.831301  
 86   	4.9853    	-27.184448  
 87   	5.0440    	-26.896912  
 88   	5.1026    	-27.256287  
 89   	5.1613    	-27.471922  
 90   	5.2199    	-28.118835  
 91   	5.2786    	-28.621948  
 92   	5.3372    	-27.975035  
 93   	5.3959    	-27.759460  
 94   	5.4545    	-27.543823  
 95   	5.5132    	-27.831301  
 96   	5.5718    	-28.046936  
 97   	5.6305    	-28.909424  
 98   	5.6891    	-27.471922  
 99   	5.7478    	-27.831301  
 100  	5.8065    	-27.256287  
 101  	5.8651    	-26.825073  
 102  	5.9238    	-27.400084  
 103  	5.9824    	-29.053162  
 104  	6.0411    	-28.334410  
 105  	6.0997    	-28.262571  
 106  	6.1584    	-27.112549  
 107  	6.2170    	-26.609434  
 108  	6.2757    	-25.675049  
 109  	6.3343    	-25.818785  
 110  	6.3930    	-24.668823  
 111  	6.4516    	-25.100037  
 112  	6.5103    	-24.812561  
 113  	6.5689    	-25.459412  
 114  	6.6276    	-25.459412  
 115  	6.6862    	-25.675049  
 116  	6.7449    	-26.106325  
 117  	6.8035    	-25.746946  
 118  	6.8622    	-25.387573  
 119  	6.9208    	-24.740662  
 120  	6.9795    	-24.956297  
 121  	7.0381    	-25.531311  
 122  	7.0968    	-25.028198  
 123  	7.1554    	-25.243837  
 124  	7.2141    	-25.746946  
 125  	7.2727    	-25.603210  
 126  	7.3314    	-24.596924  
 127  	7.3900    	-24.093809  
 128  	7.4487    	-24.237549  
 129  	7.5073    	-24.453184  
 130  	7.5660    	-24.021912  
 131  	7.6246    	-23.159426  
 132  	7.6833    	-22.728209  
 133  	7.7419    	-20.571960  
 134  	7.8006    	-19.062561  
 135  	7.8592    	-17.696960  
 136  	7.9179    	-16.043823  
 137  	7.9765    	-15.540710  
 138  	8.0352    	-15.253173  
 139  	8.0938    	-14.246948  
 140  	8.1525    	-12.306335  
 141  	8.2111    	11.484314   
 142  	8.2698    	36.353088   
 143  	8.3284    	54.681213   
 144  	8.3871    	68.481140   
 145  	8.4457    	78.256165   
 146  	8.5044    	84.796814   
 147  	8.5630    	89.181213   
 148  	8.6217    	93.421814   
 149  	8.6804    	96.871765   
 150  	8.7390    	99.746758   
 151  	8.7977    	101.471863  
 152  	8.8563    	103.196838  
 153  	8.9150    	103.556213  
 154  	8.9736    	104.346870  
 155  	9.0323    	104.562439  
 156  	9.0909    	104.921814  
 157  	9.1496    	106.431221  
 158  	9.2082    	109.162422  
 159  	9.2669    	109.162422  
 160  	9.3255    	109.234314  
 161  	9.3842    	108.731140  
 162  	9.4428    	109.090508  
 163  	9.5015    	111.031181  
 164  	9.5601    	111.749931  
 165  	9.6188    	111.318665  
 166  	9.6774    	111.390564  
 167  	9.7361    	112.037415  
 168  	9.7947    	111.893738  
 169  	9.8534    	112.181213  
 170  	9.9120    	111.893738  
 171  	9.9707    	112.037415  
 172  	10.0293   	113.259338  
 173  	10.0880   	113.834297  
 174  	10.1466   	114.193665  
 175  	10.2053   	114.337456  
 176  	10.2639   	113.187439  
 177  	10.3226   	112.756165  
 178  	10.3812   	112.396782  
 179  	10.4399   	113.618706  
 180  	10.4985   	114.624939  
 181  	10.5572   	114.840515  
 182  	10.6158   	115.271790  
 183  	10.6745   	114.624939  
 184  	10.7331   	115.559265  
 185  	10.7918   	115.559265  
 186  	10.8504   	115.415588  
 187  	10.9091   	114.193665  
 188  	10.9677   	114.193665  
 189  	11.0264   	114.337456  
 190  	11.0850   	114.193665  
 191  	11.1437   	113.762383  
 192  	11.2023   	114.049988  
 193  	11.2610   	113.906189  
 194  	11.3196   	113.834297  
 195  	11.3783   	114.984314  
 196  	11.4370   	114.481133  
 197  	11.4956   	114.265564  
 198  	11.5543   	113.978088  
 199  	11.6129   	114.481133  
 200  	11.6716   	115.703056  
 201  	11.7302   	116.206238  
 202  	11.7889   	115.559265  
 203  	11.8475   	114.553047  
 204  	11.9062   	114.984314  
 205  	11.9648   	114.121765  
 206  	12.0235   	114.193665  
 207  	12.0821   	115.343689  
 208  	12.1408   	116.206238  
 209  	12.1994   	115.343689  
 210  	12.2581   	115.990540  
 211  	12.3167   	116.421806  
 212  	12.3754   	115.990540  
 213  	12.4340   	115.990540  
 214  	12.4927   	116.349915  
 215  	12.5513   	116.206238  
 216  	12.6100   	114.840515  
 217  	12.6686   	115.703056  
 218  	12.7273   	115.271790  
 219  	12.7859   	115.343689  
 220  	12.8446   	115.415588  
 221  	12.9032   	115.056206  
 222  	12.9619   	115.918648  
 223  	13.0205   	115.271790  
 224  	13.0792   	116.062439  
 225  	13.1378   	115.415588  
 226  	13.1965   	114.912415  
 227  	13.2551   	114.912415  
 228  	13.3138   	114.696838  
 229  	13.3724   	114.768738  
 230  	13.4311   	115.199883  
 231  	13.4897   	114.624939  
 232  	13.5484   	115.199883  
 233  	13.6070   	114.193665  
 234  	13.6657   	114.624939  
 235  	13.7243   	115.415588  
 236  	13.7830   	114.840515  
 237  	13.8416   	115.343689  
 238  	13.9003   	115.703056  
 239  	13.9589   	114.768738  
 240  	14.0176   	114.409370  
 241  	14.0762   	115.056206  
 242  	14.1349   	114.409370  
 243  	14.1935   	115.487488  
 244  	14.2522   	115.343689  
 245  	14.3109   	115.343689  
 246  	14.3695   	114.696838  
 247  	14.4282   	115.199883  
 248  	14.4868   	115.199883  
 249  	14.5455   	115.343689  
 250  	14.6041   	114.984314  
 251  	14.6628   	115.559265  
 252  	14.7214   	115.559265  
 253  	14.7801   	115.271790  
 254  	14.8387   	114.193665  
 255  	14.8974   	114.049988  
 256  	14.9560   	114.481133  
 257  	15.0147   	114.409370  
 258  	15.0733   	113.403015  
 259  	15.1320   	113.115532  
 260  	15.1906   	112.181213  
 261  	15.2493   	112.109314  
 262  	15.3079   	111.678040  
 263  	15.3666   	112.181213  
 264  	15.4252   	112.756165  
 265  	15.4839   	112.181213  
 266  	15.5425   	112.468697  
 267  	15.6012   	113.043640  
 268  	15.6598   	112.684265  
 269  	15.7185   	112.324890  
 270  	15.7771   	112.109314  
 271  	15.8358   	112.181213  
 272  	15.8944   	111.534363  
 273  	15.9531   	112.109314  
 274  	16.0117   	111.749931  
 275  	16.0704   	110.959290  
 276  	16.1290   	110.743713  
 277  	16.1877   	110.815613  
 278  	16.2463   	111.246773  
 279  	16.3050   	111.821838  
 280  	16.3636   	111.174988  
 281  	16.4223   	110.887390  
 282  	16.4809   	110.456238  
 283  	16.5396   	111.462463  
 284  	16.5982   	111.462463  
 285  	16.6569   	112.396782  
 286  	16.7155   	112.324890  
 287  	16.7742   	111.390564  
 288  	16.8328   	111.103096  
 289  	16.8915   	110.384331  
 290  	16.9501   	110.168640  
 291  	17.0088   	111.318665  
 292  	17.0674   	112.109314  
 293  	17.1261   	111.893738  
 294  	17.1848   	112.253105  
 295  	17.2434   	112.612488  
 296  	17.3021   	110.959290  
 297  	17.3607   	110.959290  
 298  	17.4194   	111.174988  
 299  	17.4780   	112.109314  
 300  	17.5367   	111.246773  
 301  	17.5953   	111.462463  
 302  	17.6540   	112.540588  
 303  	17.7126   	112.899963  
 304  	17.7713   	112.540588  
 305  	17.8299   	113.187439  
 306  	17.8886   	112.324890  
 307  	17.9472   	113.187439  
 308  	18.0059   	112.540588  
 309  	18.0645   	111.390564  
 310  	18.1232   	111.606140  
 311  	18.1818   	111.678040  
 312  	18.2405   	111.318665  
 313  	18.2991   	110.815613  
 314  	18.3578   	110.456238  
 315  	18.4164   	109.953064  
 316  	18.4751   	109.378113  
 317  	18.5337   	108.874939  
 318  	18.5924   	108.731140  
 319  	18.6510   	107.940613  
 320  	18.7097   	107.509338  
 321  	18.7683   	107.365540  
 322  	18.8270   	107.868713  
 323  	18.8856   	108.084290  
 324  	18.9443   	107.006165  
 325  	19.0029   	105.784363  
 326  	19.0616   	104.849915  
 327  	19.1202   	104.490547  
 328  	19.1789   	104.490547  
 329  	19.2375   	104.274956  
 330  	19.2962   	102.478088  
 331  	19.3548   	99.890564   
 332  	19.4135   	98.453072   
 333  	19.4721   	97.231148   
 334  	19.5308   	96.153015   
 335  	19.5894   	95.793633   
 336  	19.6481   	94.356140   
 337  	19.7067   	94.212463   
 338  	19.7654   	93.781197   
 339  	19.8240   	93.781197   
 340  	19.8827   	92.487488   
 341  	19.9413   	91.624939   
 342  	20.0000   	91.049995   
 343  	20.0587   	89.540588   
 344  	20.1173   	87.599915   
 345  	20.1760   	86.881165   
 346  	20.2346   	85.084290   
 347  	20.2933   	83.574890   
 348  	20.3519   	81.993713   
 349  	20.4106   	80.699890   
 350  	20.4692   	78.687439   
 351  	20.5279   	77.537415   
 352  	20.5865   	76.315613   
 353  	20.6452   	74.662415   
 354  	20.7038   	72.578064   
 355  	20.7625   	71.356140   
 356  	20.8211   	69.990540   
 357  	20.8798   	68.481140   
 358  	20.9384   	67.259338   
 359  	20.9971   	65.606140   
 360  	21.0557   	63.737484   
 361  	21.1144   	63.234318   
 362  	21.1730   	61.868717   
 363  	21.2317   	60.718689   
 364  	21.2903   	58.203060   
 365  	21.3490   	56.406189   
 366  	21.4076   	54.393734   
 367  	21.4663   	52.812439   
 368  	21.5249   	50.512390   
 369  	21.5836   	48.931213   
 370  	21.6422   	46.343689   
 371  	21.7009   	44.474915   
 372  	21.7595   	41.743713   
 373  	21.8182   	38.868713   
 374  	21.8768   	35.993713   
 375  	21.9355   	35.203064   
 376  	21.9941   	32.687439   
 377  	22.0528   	29.596802   
 378  	22.1114   	27.943665   
 379  	22.1701   	26.506165   
 380  	22.2287   	24.781191   
 381  	22.2874   	23.056215   
 382  	22.3460   	20.756165   
 383  	22.4047   	19.678040   
 384  	22.4633   	18.096802   
 385  	22.5220   	17.306213   
 386  	22.5806   	14.718690   
 387  	22.6393   	13.640564   
 388  	22.6979   	12.346802   
 389  	22.7566   	11.771790   
 390  	22.8152   	10.478088   
 391  	22.8739   	9.112427    
 392  	22.9326   	9.040588    
 393  	22.9912   	7.531189    
 394  	23.0499   	6.021789    
 395  	23.1085   	5.374939    
 396  	23.1672   	4.584290    
 397  	23.2258   	3.721802    
 398  	23.2845   	2.499939    
 399  	23.3431   	0.774963    
 400  	23.4018   	-1.237549   
 401  	23.4604   	-2.675049   
 402  	23.5191   	-3.968811   
 403  	23.5777   	-6.053162   
 404  	23.6364   	-7.418823   
 405  	23.6950   	-8.281311   
 406  	23.7537   	-8.856323   
 407  	23.8123   	-10.365662  
 408  	23.8710   	-11.731323  
 409  	23.9296   	-12.881287  
 410  	23.9883   	-13.815674  
 411  	24.0469   	-14.462585  
 412  	24.1056   	-15.396912  
 413  	24.1642   	-16.762573  
 414  	24.2229   	-16.906311  
 415  	24.2815   	-17.050049  
 416  	24.3402   	-16.762573  
 417  	24.3988   	-16.546936  
 418  	24.4575   	-17.121948  
 419  	24.5161   	-17.409424  
 420  	24.5748   	-17.768799  
 421  	24.6334   	-18.056335  
 422  	24.6921   	-17.840698  
 423  	24.7507   	-19.278198  
 424  	24.8094   	-19.853210  
 425  	24.8680   	-19.925049  
 426  	24.9267   	-20.500061  
 427  	24.9853   	-20.787537  
 428  	25.0440   	-21.075073  
 429  	25.1026   	-22.296936  
 430  	25.1613   	-22.656311  
 431  	25.2199   	-23.734436  
 432  	25.2786   	-24.237549  
 433  	25.3372   	-24.668823  
 434  	25.3959   	-24.525085  
 435  	25.4545   	-24.884459  
 436  	25.5132   	-24.956297  
 437  	25.5718   	-25.459412  
 438  	25.6305   	-25.028198  
 439  	25.6891   	-24.884459  
 440  	25.7478   	-24.668823  
 441  	25.8065   	-24.596924  
 442  	25.8651   	-23.734436  
 443  	25.9238   	-23.375061  
 444  	25.9824   	-23.375061  
 445  	26.0411   	-23.087587  
 446  	26.0997   	-24.165710  
 447  	26.1584   	-24.021912  
 448  	26.2170   	-23.878174  
 449  	26.2757   	-24.237549  
 450  	26.3343   	-23.662535  
 451  	26.3930   	-23.662535  
 452  	26.4516   	-23.303162  
 453  	26.5103   	-20.428162  
 454  	26.5689   	-16.834412  
 455  	26.6276   	-13.456299  
 456  	26.6862   	-10.150085  
 457  	26.7449   	-6.771912   
 458  	26.8035   	-4.256287   
 459  	26.8622   	-4.975037   
 460  	26.9208   	-2.962585   
 461  	26.9795   	-2.315674   
 462  	27.0381   	-1.956299   
 463  	27.0968   	-1.381287   
 464  	27.1554   	-1.740662   
 465  	27.2141   	-1.812561   
 466  	27.2727   	-1.453186   
 467  	27.3314   	-1.596924   
 468  	27.3900   	-1.237549   
 469  	27.4487   	-0.878174   
 470  	27.5073   	-0.806335   
 471  	27.5660   	-1.453186   
 472  	27.6246   	-0.806335   
 473  	27.6833   	-0.950073   
 474  	27.7419   	-1.093811   
 475  	27.8006   	-0.590698   
 476  	27.8592   	-0.303162   
 477  	27.9179   	-0.015686   
 478  	27.9765   	-0.303162   
 479  	28.0352   	-0.375061   
 480  	28.0938   	-0.159424   
 481  	28.1525   	-0.590698   
 482  	28.2111   	0.056213    
 483  	28.2698   	-0.518799   
 484  	28.3284   	-0.518799   
 485  	28.3871   	0.774963    
 486  	28.4457   	0.343689    
 487  	28.5044   	1.134338    
 488  	28.5630   	1.853088    
 489  	28.6217   	1.853088    
 490  	28.6804   	1.637451    
 491  	28.7390   	1.565552    
 492  	28.7977   	3.146790    
 493  	28.8563   	3.218689    
 494  	28.9150   	4.368713    
 495  	28.9736   	4.153076    
 496  	29.0323   	5.878052    
 497  	29.0909   	16.515564   
 498  	29.1496   	27.584290   
 499  	29.2082   	32.399963   
 500  	29.2669   	34.699890   
 501  	29.3255   	32.974915   
 502  	29.3842   	30.315552   
 503  	29.4428   	27.512451   
 504  	29.5015   	25.212461   
 505  	29.5601   	22.481201   
 506  	29.6188   	19.965576   
 507  	29.6774   	17.593689   
 508  	29.7361   	16.084290   
 509  	29.7947   	14.359314   
 510  	29.8534   	11.915589   
 511  	29.9120   	11.268677   
 512  	29.9707   	9.687439    
 513  	30.0293   	9.112427    
 514  	30.0880   	8.249939    
 515  	30.1466   	7.531189    
 516  	30.2053   	7.603088    
 517  	30.2639   	7.243713    
 518  	30.3226   	6.884338    
 519  	30.3812   	6.165588    
 520  	30.4399   	6.237427    
 521  	30.4985   	5.590576    
 522  	30.5572   	5.878052    
 523  	30.6158   	5.159302    
 524  	30.6745   	4.943665    
 525  	30.7331   	5.878052    
 526  	30.7918   	6.668701    
 527  	30.8504   	5.949951    
 528  	30.9091   	5.662415    
 529  	30.9677   	4.440552    
 530  	31.0264   	4.081177    
 531  	31.0850   	4.943665    
 532  	31.1437   	4.224915    
 533  	31.2023   	4.656189    
 534  	31.2610   	4.224915    
 535  	31.3196   	4.296814    
 536  	31.3783   	3.937439    
 537  	31.4370   	3.649963    
 538  	31.4956   	3.506165    
 539  	31.5543   	4.081177    
 540  	31.6129   	3.434326    
 541  	31.6716   	3.865539    
 542  	31.7302   	3.649963    
 543  	31.7889   	2.284302    
 544  	31.8475   	2.931213    
 545  	31.9062   	2.787415    
 546  	31.9648   	3.218689    
 547  	32.0235   	2.787415    
 548  	32.0821   	2.571838    
 549  	32.1408   	3.003052    
 550  	32.1994   	3.218689    
 551  	32.2581   	2.931213    
 552  	32.3167   	2.715576    
 553  	32.3754   	2.643677    
 554  	32.4340   	3.003052    
 555  	32.4927   	3.218689    
 556  	32.5513   	2.499939    
 557  	32.6100   	3.290589    
 558  	32.6686   	3.290589    
 559  	32.7273   	2.787415    
 560  	32.7859   	1.637451    
 561  	32.8446   	1.637451    
 562  	32.9032   	1.781189    
 563  	32.9619   	1.996826    
 564  	33.0205   	1.853088    
 565  	33.0792   	1.565552    
 566  	33.1378   	2.428040    
 567  	33.1965   	2.859314    
 568  	33.2551   	3.146790    
 569  	33.3138   	3.218689    
 570  	33.3724   	2.787415    
 571  	33.4311   	1.996826    
 572  	33.4897   	1.421814    
 573  	33.5484   	1.134338    
 574  	33.6070   	0.918701    
 575  	33.6657   	0.846802    
 576  	33.7243   	1.278076    
 577  	33.7830   	0.990540    
 578  	33.8416   	1.349915    
 579  	33.9003   	0.703064    
 580  	33.9589   	1.637451    
 581  	34.0176   	1.421814    
 582  	34.0762   	1.206177    
 583  	34.1349   	0.559326    
 584  	34.1935   	1.349915    
 585  	34.2522   	0.774963    
 586  	34.3109   	0.559326    
 587  	34.3695   	0.918701    
 588  	34.4282   	1.349915    
 589  	34.4868   	0.774963    
 590  	34.5455   	0.703064    
 591  	34.6041   	0.271790    
 592  	34.6628   	0.128052    
 593  	34.7214   	0.559326    
 594  	34.7801   	0.918701    
 595  	34.8387   	0.990540    
 596  	34.8974   	0.990540    
 597  	34.9560   	0.846802    
 598  	35.0147   	1.781189    
 599  	35.0733   	2.140564    
 600  	35.1320   	2.284302    
 601  	35.1906   	2.643677    
 602  	35.2493   	2.643677    
 603  	35.3079   	2.571838    
 604  	35.3666   	3.218689    
 605  	35.4252   	2.428040    
 606  	35.4839   	1.709290    
 607  	35.5425   	1.637451    
 608  	35.6012   	0.774963    
 609  	35.6598   	0.343689    
 610  	35.7185   	0.703064    
 611  	35.7771   	0.631165    
 612  	35.8358   	0.631165    
 613  	35.8944   	0.487427    
 614  	35.9531   	1.421814    
 615  	36.0117   	1.421814    
 616  	36.0704   	2.787415    
 617  	36.1290   	2.140564    
 618  	36.1877   	0.846802    
 619  	36.2463   	-1.884460   
 620  	36.3050   	-4.759460   
 621  	36.3636   	-6.268798   
 622  	36.4223   	-7.562561   
 623  	36.4809   	-5.478210   
 624  	36.5396   	-2.962585   
 625  	36.5982   	-2.531311   
 626  	36.6569   	1.206177    
 627  	36.7155   	5.590576    
 628  	36.7742   	7.459290    
 629  	36.8328   	6.740540    
 630  	36.8915   	4.656189    
 631  	36.9501   	1.924927    
 632  	37.0088   	1.637451    
 633  	37.0674   	0.703064    
 634  	37.1261   	1.709290    
 635  	37.1848   	2.571838    
 636  	37.2434   	2.284302    
 637  	37.3021   	0.774963    
 638  	37.3607   	-0.446960   
 639  	37.4194   	-1.165710   
 640  	37.4780   	-1.309448   
 641  	37.5367   	-1.165710   
 642  	37.5953   	-1.453186   
 643  	37.6540   	-1.381287   
 644  	37.7126   	-1.740662   
 645  	37.7713   	-1.668823   
 646  	37.8299   	-2.387573   
 647  	37.8886   	-1.956299   
 648  	37.9472   	-1.453186   
 649  	38.0059   	-1.381287   
 650  	38.0645   	-1.237549   
 651  	38.1232   	-2.315674   
 652  	38.1818   	-2.315674   
 653  	38.2405   	-2.818786   
 654  	38.2991   	-2.603210   
 655  	38.3578   	-2.459412   
 656  	38.4164   	-2.387573   
 657  	38.4751   	-4.400085   
 658  	38.5337   	-3.825073   
 659  	38.5924   	-4.903198   
 660  	38.6510   	-5.190674   
 661  	38.7097   	-5.118835   
 662  	38.7683   	-5.621948   
 663  	38.8270   	-6.340698   
 664  	38.8856   	-6.987549   
 665  	38.9443   	-7.346923   
 666  	39.0029   	-7.490662   
 667  	39.0616   	-7.131287   
 668  	39.1202   	-6.125062   
 669  	39.1789   	-7.131287   
 670  	39.2375   	-8.568787   
 671  	39.2962   	-9.431335   
 672  	39.3548   	-9.431335   
 673  	39.4135   	-10.437561  
 674  	39.4721   	-10.365662  
 675  	39.5308   	-10.221924  
 676  	39.5894   	-10.150085  
 677  	39.6481   	-10.293823  
 678  	39.7067   	-10.796936  
 679  	39.7654   	-11.803162  
 680  	39.8240   	-12.162537  
 681  	39.8827   	-12.521911  
 682  	39.9413   	-12.881287  
 683  	40.0000   	-13.815674  
 684  	40.0587   	-14.318787  
 685  	40.1173   	-14.606323  
 686  	40.1760   	-14.246948  
 687  	40.2346   	-14.103211  
 688  	40.2933   	-15.253173  
 689  	40.3519   	-14.606323  
 690  	40.4106   	-15.468811  
 691  	40.4692   	-16.043823  
 692  	40.5279   	-16.259460  
 693  	40.5865   	-17.121948  
 694  	40.6452   	-17.768799  
 695  	40.7038   	-18.415710  
 696  	40.7625   	-19.062561  
 697  	40.8211   	-18.703186  
 698  	40.8798   	-18.631287  
 699  	40.9384   	-17.840698  
 700  	40.9971   	-19.278198  
 701  	41.0557   	-19.278198  
 702  	41.1144   	-19.421936  
 703  	41.1730   	-19.565674  
 704  	41.2317   	-19.996948  
 705  	41.2903   	-20.500061  
 706  	41.3490   	-21.650085  
 707  	41.4076   	-21.146912  
 708  	41.4663   	-21.003174  
 709  	41.5249   	-19.781311  
 710  	41.5836   	-20.931335  
 711  	41.6422   	-20.284424  
 712  	41.7009   	-21.434448  
 713  	41.7595   	-21.362549  
 714  	41.8182   	-22.081299  
 715  	41.8768   	-22.296936  
 716  	41.9355   	-22.225037  
 717  	41.9941   	-22.943787  
 718  	42.0528   	-23.662535  
 719  	42.1114   	-24.525085  
 720  	42.1701   	-25.818785  
 721  	42.2287   	-25.387573  
 722  	42.2874   	-26.250061  
 723  	42.3460   	-25.746946  
 724  	42.4047   	-25.459412  
 725  	42.4633   	-26.178164  
 726  	42.5220   	-26.250061  
 727  	42.5806   	-26.106325  
 728  	42.6393   	-25.675049  
 729  	42.6979   	-26.106325  
 730  	42.7566   	-25.531311  
 731  	42.8152   	-25.890686  
 732  	42.8739   	-26.896912  
 733  	42.9326   	-26.968813  
 734  	42.9912   	-26.825073  
 735  	43.0499   	-26.681335  
 736  	43.1085   	-26.393799  
 737  	43.1672   	-26.465698  
 738  	43.2258   	-26.609434  
 739  	43.2845   	-27.112549  
 740  	43.3431   	-27.471922  
 741  	43.4018   	-26.609434  
 742  	43.4604   	-26.537537  
 743  	43.5191   	-26.609434  
 744  	43.5777   	-27.040710  
 745  	43.6364   	-27.759460  
 746  	43.6950   	-27.256287  
 747  	43.7537   	-27.256287  
 748  	43.8123   	-26.393799  
 749  	43.8710   	-26.465698  
 750  	43.9296   	-28.334410  
 751  	43.9883   	-28.046936  
 752  	44.0469   	-28.262571  
 753  	44.1056   	-28.190674  
 754  	44.1642   	-28.190674  
 755  	44.2229   	-27.471922  
 756  	44.2815   	-28.046936  
 757  	44.3402   	-28.190674  
 758  	44.3988   	-27.903196  
 759  	44.4575   	-28.190674  
 760  	44.5161   	-28.406311  
 761  	44.5748   	-28.550049  
 762  	44.6334   	-29.268799  
 763  	44.6921   	-28.909424  
 764  	44.7507   	-28.334410  
 765  	44.8094   	-29.340698  
 766  	44.8680   	-28.262571  
 767  	44.9267   	-27.471922  
 768  	44.9853   	-28.621948  
 769  	45.0440   	-29.125059  
 770  	45.1026   	-28.909424  
 771  	45.1613   	-30.275085  
 772  	45.2199   	-30.131287  
 773  	45.2786   	-30.346924  
 774  	45.3372   	-29.843811  
 775  	45.3959   	-28.406311  
 776  	45.4545   	-29.125059  
 777  	45.5132   	-28.621948  
 778  	45.5718   	-28.478210  
 779  	45.6305   	-28.262571  
 780  	45.6891   	-28.837585  
 781  	45.7478   	-28.190674  
 782  	45.8065   	-27.831301  
 783  	45.8651   	-27.471922  
 784  	45.9238   	-28.262571  
 785  	45.9824   	-28.621948  
 786  	46.0411   	-29.125059  
 787  	46.0997   	-29.125059  
 788  	46.1584   	-29.053162  
 789  	46.2170   	-27.543823  
 790  	46.2757   	-28.406311  
 791  	46.3343   	-28.981323  
 792  	46.3930   	-27.543823  
 793  	46.4516   	-26.250061  
 794  	46.5103   	-27.328186  
 795  	46.5689   	-27.256287  
 796  	46.6276   	-27.256287  
 797  	46.6862   	-28.837585  
 798  	46.7449   	-29.053162  
 799  	46.8035   	-28.909424  
 800  	46.8622   	-29.268799  
 801  	46.9208   	-29.412537  
 802  	46.9795   	-29.843811  
 803  	47.0381   	-28.478210  
 804  	47.0968   	-28.118835  
 805  	47.1554   	-27.687561  
 806  	47.2141   	-27.831301  
 807  	47.2727   	-27.471922  
 808  	47.3314   	-27.400084  
 809  	47.3900   	-24.884459  
 810  	47.4487   	-24.237549  
 811  	47.5073   	-22.728209  
 812  	47.5660   	-22.009460  
 813  	47.6246   	-22.584412  
 814  	47.6833   	-23.231321  
 815  	47.7419   	-23.518799  
 816  	47.8006   	-24.309448  
 817  	47.8592   	-24.740662  
 818  	47.9179   	-25.459412  
 819  	47.9765   	-25.890686  
 820  	48.0352   	-25.459412  
 821  	48.0938   	-25.603210  
 822  	48.1525   	-26.178164  
 823  	48.2111   	-27.040710  
 824  	48.2698   	-26.968813  
 825  	48.3284   	-26.968813  
 826  	48.3871   	-26.034424  
 827  	48.4457   	-26.537537  
 828  	48.5044   	-27.759460  
 829  	48.5630   	-27.975035  
 830  	48.6217   	-27.687561  
 831  	48.6804   	-28.693787  
 832  	48.7390   	-29.125059  
 833  	48.7977   	-29.412537  
 834  	48.8563   	-29.628172  
 835  	48.9150   	-28.478210  
 836  	48.9736   	-28.262571  
 837  	49.0323   	-28.621948  
 838  	49.0909   	-28.262571  
 839  	49.1496   	-27.256287  
 840  	49.2082   	-27.687561  
 841  	49.2669   	-28.478210  
 842  	49.3255   	-27.471922  
 843  	49.3842   	-28.550049  
 844  	49.4428   	-29.412537  
 845  	49.5015   	-28.909424  
 846  	49.5601   	-28.334410  
 847  	49.6188   	-28.190674  
 848  	49.6774   	-28.190674  
 849  	49.7361   	-28.837585  
 850  	49.7947   	-28.478210  
 851  	49.8534   	-27.400084  
 852  	49.9120   	-27.256287  
 853  	49.9707   	-26.250061  
 854  	50.0293   	-26.681335  
 855  	50.0880   	-26.968813  
 856  	50.1466   	-27.975035  
 857  	50.2053   	-28.550049  
 858  	50.2639   	-28.693787  
 859  	50.3226   	-28.550049  
 860  	50.3812   	-28.765684  
 861  	50.4399   	-28.693787  
 862  	50.4985   	-28.765684  
 863  	50.5572   	-28.621948  
 864  	50.6158   	-28.406311  
 865  	50.6745   	-28.693787  
 866  	50.7331   	-28.909424  
 867  	50.7918   	-28.981323  
 868  	50.8504   	-29.053162  
 869  	50.9091   	-29.412537  
 870  	50.9677   	-29.484436  
 871  	51.0264   	-28.406311  
 872  	51.0850   	-29.053162  
 873  	51.1437   	-28.190674  
 874  	51.2023   	-28.909424  
 875  	51.2610   	-29.125059  
 876  	51.3196   	-28.693787  
 877  	51.3783   	-27.975035  
 878  	51.4370   	-27.471922  
 879  	51.4956   	-28.190674  
 880  	51.5543   	-26.968813  
 881  	51.6129   	-25.962585  
 882  	51.6716   	-26.321960  
 883  	51.7302   	-26.681335  
 884  	51.7889   	-27.112549  
 885  	51.8475   	-26.681335  
 886  	51.9062   	-26.609434  
 887  	51.9648   	-27.471922  
 888  	52.0235   	-27.831301  
 889  	52.0821   	-27.328186  
 890  	52.1408   	-27.975035  
 891  	52.1994   	-28.981323  
 892  	52.2581   	-28.334410  
 893  	52.3167   	-28.334410  
 894  	52.3754   	-27.975035  
 895  	52.4340   	-27.831301  
 896  	52.4927   	-27.831301  
 897  	52.5513   	-28.550049  
 898  	52.6100   	-28.621948  
 899  	52.6686   	-28.262571  
 900  	52.7273   	-28.046936  
 901  	52.7859   	-27.543823  
 902  	52.8446   	-27.687561  
 903  	52.9032   	-27.471922  
 904  	52.9619   	-26.825073  
 905  	53.0205   	-27.615662  
 906  	53.0792   	-27.328186  
 907  	53.1378   	-27.040710  
 908  	53.1965   	-26.968813  
 909  	53.2551   	-27.759460  
 910  	53.3138   	-26.825073  
 911  	53.3724   	-26.968813  
 912  	53.4311   	-26.896912  
 913  	53.4897   	-27.040710  
 914  	53.5484   	-26.968813  
 915  	53.6070   	-27.400084  
 916  	53.6657   	-27.543823  
 917  	53.7243   	-28.118835  
 918  	53.7830   	-28.693787  
 919  	53.8416   	-27.831301  
 920  	53.9003   	-27.975035  
 921  	53.9589   	-28.981323  
 922  	54.0176   	-28.190674  
 923  	54.0762   	-28.765684  
 924  	54.1349   	-28.837585  
 925  	54.1935   	-28.837585  
 926  	54.2522   	-28.837585  
 927  	54.3109   	-29.053162  
 928  	54.3695   	-27.759460  
 929  	54.4282   	-28.909424  
 930  	54.4868   	-27.831301  
 931  	54.5455   	-28.837585  
 932  	54.6041   	-28.478210  
 933  	54.6628   	-27.543823  
 934  	54.7214   	-27.687561  
 935  	54.7801   	-27.687561  
 936  	54.8387   	-26.681335  
 937  	54.8974   	-26.896912  
 938  	54.9560   	-26.968813  
 939  	55.0147   	-26.896912  
 940  	55.0733   	-26.896912  
 941  	55.1320   	-26.681335  
 942  	55.1906   	-27.112549  
 943  	55.2493   	-27.112549  
 944  	55.3079   	-27.328186  
 945  	55.3666   	-27.400084  
 946  	55.4252   	-27.328186  
 947  	55.4839   	-27.400084  
 948  	55.5425   	-27.759460  
 949  	55.6012   	-27.687561  
 950  	55.6598   	-27.687561  
 951  	55.7185   	-26.825073  
 952  	55.7771   	-27.615662  
 953  	55.8358   	-27.112549  
 954  	55.8944   	-27.471922  
 955  	55.9531   	-27.471922  
 956  	56.0117   	-27.831301  
 957  	56.0704   	-26.968813  
 958  	56.1290   	-26.968813  
 959  	56.1877   	-26.178164  
 960  	56.2463   	-26.321960  
 961  	56.3050   	-26.968813  
 962  	56.3636   	-27.687561  
 963  	56.4223   	-27.400084  
 964  	56.4809   	-27.687561  
 965  	56.5396   	-27.903196  
 966  	56.5982   	-27.256287  
 967  	56.6569   	-26.896912  
 968  	56.7155   	-26.465698  
 969  	56.7742   	-27.471922  
 970  	56.8328   	-27.040710  
 971  	56.8915   	-27.328186  
 972  	56.9501   	-26.825073  
 973  	57.0088   	-27.040710  
 974  	57.0674   	-27.184448  
 975  	57.1261   	-28.478210  
 976  	57.1848   	-28.981323  
 977  	57.2434   	-28.981323  
 978  	57.3021   	-29.053162  
 979  	57.3607   	-27.687561  
 980  	57.4194   	-25.603210  
 981  	57.4780   	-25.746946  
 982  	57.5367   	-25.171936  
 983  	57.5953   	-23.446960  
 984  	57.6540   	-22.296936  
 985  	57.7126   	-23.518799  
 986  	57.7713   	-25.675049  
 987  	57.8299   	-26.968813  
 988  	57.8886   	-28.118835  
 989  	57.9472   	-26.896912  
 990  	58.0059   	-27.687561  
 991  	58.0645   	-26.968813  
 992  	58.1232   	-27.543823  
 993  	58.1818   	-28.118835  
 994  	58.2405   	-27.615662  
 995  	58.2991   	-28.837585  
 996  	58.3578   	-28.262571  
 997  	58.4164   	-28.262571  
 998  	58.4751   	-27.400084  
 999  	58.5337   	-27.471922  
 1000 	58.5924   	-26.825073  
 1001 	58.6510   	-26.465698  
 1002 	58.7097   	-26.321960  
 1003 	58.7683   	-27.471922  
 1004 	58.8270   	-27.687561  
 1005 	58.8856   	-27.759460  
 1006 	58.9443   	-27.471922  
 1007 	59.0029   	-27.759460  
 1008 	59.0616   	-27.471922  
 1009 	59.1202   	-28.334410  
 1010 	59.1789   	-28.046936  
 1011 	59.2375   	-27.543823  
 1012 	59.2962   	-27.184448  
 1013 	59.3548   	-27.543823  
 1014 	59.4135   	-27.687561  
 1015 	59.4721   	-28.621948  
 1016 	59.5308   	-28.118835  
 1017 	59.5894   	-28.478210  
 1018 	59.6481   	-27.975035  
 1019 	59.7067   	-27.328186  
 1020 	59.7654   	-27.184448  
 1021 	59.8240   	-27.400084  
 1022 	59.8827   	-27.256287  
 1023 	59.9413   	-27.040710  
 1024 	60.0000   	-27.256287  

